T [C],UTS (stress-relieved) [MPA],UTS (recrystallized) [MPA]
20,1432,380
50,1401,380
100,1349,379
200,1249,377
250,1199,375
300,1151,371
400,1057,363
500,966,352
600,878,338
700,794,322
800,714,305
900,638,286
1000,565,266
1100,497,246
1200,433,224
